A random graph with 1000 vertices and 9913 edges.

The graph is generated in the following way:
    - for each vertex, select n / 50.0 random neighbors
    - get rid of duplicate edges
    - weights are reals sampled uniformly from 1/[1..1000]

There are three trees in the folder.

Tree1 - total stretch = 17945.06281332134, ave stretch = 2.013132467278589
[0,1) - 2725
[1,2) - 3565
[2,4) - 1779
[4,8) - 656
[8,16) - 150
[16,32) - 31

Eigenvalues of lap(a) * lap(tree1)^-1
0.8715 1.0099 1.0113 1.013 1.0138 1.0146 1.0149 1.0153 1.016 1.0172 1.0175 1.018 1.0184 1.0204 1.0218 1.0219 1.0225 1.0247 1.0275 1.0293 1.0333 1.0365 1.0371 1.0384 1.0387 1.0393 1.0404 1.0408 1.0469 1.0504 1.0542 1.055 1.0554 1.0604 1.0619 1.0641 1.0652 1.0658 1.0669 1.0678 1.0685 1.0688 1.0718 1.0742 1.0757 1.0763 1.0765 1.0776 1.0791 1.0809 1.0858 1.0887 1.0901 1.0923 1.0967 1.0974 1.0991 1.1024 1.1035 1.1045 1.1061 1.1079 1.1112 1.1147 1.1161 1.1177 1.119 1.1199 1.1287 1.1292 1.1309 1.1319 1.133 1.1342 1.1351 1.1366 1.1373 1.1389 1.1394 1.1412 1.1427 1.1439 1.147 1.1485 1.1504 1.1517 1.1522 1.155 1.1559 1.1565 1.1606 1.1639 1.1665 1.1691 1.1726 1.1751 1.1755 1.1777 1.1808 1.1825 1.186 1.1884 1.1892 1.191 1.1933 1.1956 1.1984 1.1994 1.2016 1.2022 1.2039 1.2047 1.2054 1.2064 1.2078 1.2104 1.2108 1.2121 1.213 1.2155 1.2175 1.2187 1.2198 1.2218 1.2233 1.2261 1.2278 1.2297 1.2327 1.2338 1.2363 1.2393 1.2419 1.2446 1.2452 1.2458 1.2472 1.2496 1.2508 1.2521 1.254 1.255 1.257 1.2588 1.2596 1.2614 1.2646 1.2676 1.2692 1.2706 1.2741 1.2776 1.2794 1.283 1.2873 1.2905 1.291 1.2918 1.2937 1.2957 1.2965 1.2985 1.3015 1.3022 1.3047 1.3052 1.3069 1.3105 1.3125 1.3149 1.3175 1.3183 1.3197 1.3244 1.3271 1.3287 1.3294 1.3339 1.335 1.3377 1.3395 1.3419 1.343 1.3481 1.3499 1.352 1.3541 1.3567 1.3577 1.3612 1.3637 1.3666 1.3711 1.3723 1.374 1.3782 1.3806 1.3829 1.3843 1.3877 1.3912 1.3929 1.3975 1.3994 1.4001 1.4009 1.4033 1.4066 1.407 1.41 1.412 1.4159 1.4169 1.4182 1.4206 1.4233 1.4263 1.4282 1.4306 1.4338 1.4389 1.4407 1.4421 1.4424 1.4447 1.4474 1.4521 1.4551 1.4568 1.4584 1.4601 1.4633 1.4658 1.4698 1.4718 1.474 1.4768 1.4788 1.483 1.4859 1.4893 1.4899 1.4933 1.4962 1.4975 1.5074 1.51 1.5128 1.5145 1.5175 1.5201 1.5233 1.5264 1.5275 1.5292 1.5331 1.5346 1.5404 1.5445 1.5479 1.5481 1.5509 1.5564 1.5605 1.562 1.5673 1.5696 1.5738 1.5757 1.5795 1.5892 1.5903 1.5943 1.598 1.6007 1.6059 1.609 1.6132 1.6214 1.6217 1.6321 1.6334 1.636 1.6383 1.6403 1.6454 1.6512 1.652 1.6558 1.6595 1.6627 1.6692 1.6703 1.6737 1.6767 1.6785 1.6791 1.6847 1.687 1.6878 1.6923 1.6951 1.7011 1.703 1.7062 1.7074 1.716 1.7195 1.7225 1.7262 1.7297 1.7332 1.7407 1.7418 1.7473 1.7519 1.7537 1.7592 1.7617 1.7625 1.766 1.7701 1.7738 1.7801 1.7816 1.7829 1.789 1.7926 1.7976 1.8023 1.8074 1.8098 1.8139 1.8168 1.8202 1.8279 1.8303 1.8384 1.8419 1.8494 1.8498 1.8582 1.8633 1.8665 1.8708 1.8749 1.8795 1.8856 1.8899 1.8948 1.8994 1.9085 1.9144 1.9205 1.9252 1.9272 1.9352 1.9389 1.948 1.95 1.9557 1.966 1.9695 1.9722 1.9804 1.983 1.988 1.9947 2.0014 2.004 2.0104 2.013 2.0204 2.0256 2.0302 2.0371 2.0408 2.0424 2.0531 2.0562 2.0672 2.0688 2.079 2.0843 2.0866 2.0879 2.0965 2.1026 2.1094 2.1142 2.1214 2.1253 2.1315 2.1376 2.1437 2.148 2.1525 2.1565 2.1589 2.1696 2.1704 2.1794 2.1857 2.19 2.1993 2.2045 2.2111 2.2186 2.2289 2.2325 2.2463 2.25 2.2552 2.2615 2.2702 2.2801 2.2827 2.2888 2.3002 2.3057 2.3216 2.3313 2.3351 2.3399 2.3428 2.3647 2.3733 2.3766 2.3805 2.3891 2.3948 2.4003 2.4021 2.4139 2.4198 2.4251 2.4422 2.45 2.4533 2.4599 2.4663 2.4744 2.4788 2.4898 2.4914 2.496 2.5154 2.5169 2.5217 2.5287 2.5359 2.5402 2.5506 2.5559 2.5683 2.5809 2.5943 2.6047 2.6224 2.6297 2.6363 2.6508 2.652 2.6585 2.6694 2.6741 2.6802 2.6841 2.7059 2.7141 2.7163 2.7329 2.7405 2.7519 2.7587 2.7669 2.7838 2.7931 2.7992 2.8141 2.8273 2.8375 2.8413 2.8551 2.8593 2.8711 2.8787 2.8817 2.9002 2.9058 2.9264 2.9297 2.9542 2.9598 2.9674 2.9761 2.9847 2.9986 3.019 3.0309 3.0488 3.0609 3.0682 3.0755 3.0902 3.1035 3.1044 3.1207 3.1259 3.1346 3.146 3.1678 3.1851 3.1942 3.2138 3.2292 3.2318 3.2425 3.2514 3.2632 3.268 3.2879 3.3021 3.3341 3.3379 3.3412 3.3594 3.3633 3.3843 3.3951 3.4082 3.4133 3.4237 3.4286 3.4357 3.4514 3.468 3.478 3.494 3.5022 3.5065 3.5176 3.5406 3.5555 3.5634 3.5856 3.5864 3.5911 3.6075 3.6197 3.6275 3.6405 3.6437 3.6729 3.6882 3.7006 3.7091 3.7151 3.7215 3.7276 3.757 3.7671 3.7766 3.7994 3.8106 3.8291 3.839 3.8642 3.869 3.8862 3.8879 3.9067 3.9323 3.9378 3.9469 3.9518 3.965 4.0049 4.0176 4.0337 4.0529 4.0619 4.0723 4.0746 4.0901 4.1049 4.1143 4.1331 4.1394 4.1438 4.1866 4.1904 4.2032 4.2209 4.2293 4.253 4.2572 4.285 4.295 4.3178 4.3337 4.3542 4.3676 4.3926 4.406 4.4299 4.4374 4.4466 4.4713 4.4887 4.4951 4.5171 4.537 4.5628 4.5743 4.5956 4.6163 4.6219 4.6256 4.6576 4.6665 4.6891 4.7247 4.7331 4.7474 4.7555 4.8017 4.8294 4.8458 4.85 4.8678 4.88 4.9007 4.9407 4.9629 4.9756 4.9918 5.0252 5.0641 5.0808 5.1019 5.1225 5.1613 5.1803 5.191 5.2082 5.2373 5.2645 5.2737 5.3025 5.3189 5.3563 5.3716 5.3762 5.4012 5.4222 5.4366 5.4542 5.4862 5.5026 5.5527 5.5676 5.6112 5.6368 5.6449 5.6611 5.674 5.6839 5.7085 5.7371 5.7569 5.7725 5.801 5.8218 5.8412 5.8834 5.9215 5.9352 5.9679 5.9767 6.0257 6.0434 6.0537 6.0644 6.0934 6.1507 6.1656 6.1769 6.1986 6.2353 6.3055 6.318 6.3581 6.3642 6.4098 6.4371 6.4465 6.4876 6.5052 6.5312 6.5495 6.593 6.6182 6.6362 6.6704 6.6874 6.7216 6.737 6.7538 6.7625 6.8119 6.8239 6.8496 6.8734 6.9253 6.9287 6.9599 6.9739 7.0004 7.0549 7.071 7.0889 7.1131 7.1569 7.1874 7.2036 7.237 7.2931 7.299 7.3187 7.3791 7.4179 7.436 7.4641 7.4712 7.4826 7.559 7.5746 7.5856 7.6047 7.6543 7.7045 7.7373 7.8074 7.8269 7.8798 7.9057 7.9383 7.9517 7.981 7.9971 8.0102 8.0853 8.1453 8.1644 8.1875 8.2368 8.2519 8.2731 8.3405 8.3458 8.4113 8.4226 8.4888 8.5345 8.564 8.5939 8.6283 8.6328 8.7005 8.7196 8.7978 8.8254 8.8437 8.9191 8.9682 8.9859 9.0185 9.0726 9.0999 9.1391 9.2088 9.2376 9.2864 9.3533 9.4153 9.4546 9.5224 9.5288 9.625 9.6321 9.6675 9.7275 9.7567 9.8893 9.9058 9.9242 9.9914 10.0467 10.114 10.1299 10.2455 10.2691 10.3107 10.3467 10.37 10.3767 10.4363 10.53 10.6273 10.7099 10.7356 10.7673 10.7862 10.8257 10.9138 10.9969 11.0198 11.1305 11.23 11.4047 11.4463 11.4824 11.5648 11.6334 11.7274 11.8615 11.875 11.9617 12.1245 12.2676 12.3504 12.4046 12.5327 12.6349 12.754 13.0152 13.1138 13.1438 13.1828 13.2978 13.4229 13.4754 13.595 13.7307 13.8386 13.933 13.9783 14.0554 14.3034 14.3596 14.4586 14.505 14.6453 14.8063 14.8904 14.9951 15.2843 15.3775 15.4782 15.6339 15.8287 15.9626 16.0765 16.207 16.3951 16.503 16.5608 16.8466 16.9169 17.0032 17.2208 17.5161 17.631 17.6942 17.9547 18.0692 18.3352 18.4512 18.4673 18.9426 19.1818 19.3201 19.4517 19.5533 19.8746 20.047 20.2911 20.3972 20.4358 20.6732 20.8461 21.0535 21.2886 21.4073 21.6833 22.3497 22.6085 22.6864 22.9611 23.0734 23.4284 23.873 24.1922 24.3437 24.4278 24.9327 25.2727 25.4628 25.5256 25.5914 25.9949 26.4784 27.0396 27.9569 28.7113 29.0859 29.4914 30.3605 30.5322 30.6959 31.2334 31.8352 32.299 32.7259 32.9092 33.4143 34.1786 34.3953 34.6442 34.9691 35.2142 35.4347 36.6514 37.3925 37.5115 38.1323 38.8635 39.5964 39.7323 40.0805 40.9772 41.8615 42.7933 43.5866 44.627 45.8794 46.5021 47.4525 48.2622 49.0417 49.6789 50.3061 51.5483 55.9321 56.4336 58.2608 60.5723 63.0067 63.4348 65.4473 67.4192 69.1514 71.4347 73.2756 78.6389 79.5336 80.7855 83.0943 85.4621 87.9554 88.9637 90.1767 93.5763 95.0994 96.6907 109.3584 111.8269 118.2607 129.3785 135.4023 149.3773 178.7736 196.8575 222.0808 228.3456 257.4316 304.5188 318.0523 323.0813 341.6569 344.5027 404.3076 423.6499 483.9073 593.6409 904.0197 1630.8382 3455.2931 


Tree2 - total stretch = 97159.44351338221, ave stretch = 10.899645895600427
[0,1) - 122
[1,2) - 524
[2,4) - 2419
[4,8) - 3150
[8,16) - 1505
[16,32) - 731
[32,64) - 287
[64,128) - 113
[128,256) - 46
[256,512) - 12
[512,1024) - 4

Eigenvalues of lap(a) * lap(tree2)^-1
0.3697 0.9817 1.0095 1.0128 1.0146 1.0152 1.0164 1.0175 1.0179 1.0193 1.0194 1.0204 1.0219 1.0235 1.0237 1.0282 1.0308 1.0322 1.033 1.0385 1.0437 1.0452 1.0537 1.0568 1.0585 1.0594 1.0605 1.061 1.0613 1.0625 1.0633 1.0643 1.0646 1.0709 1.0719 1.0749 1.0754 1.0776 1.0779 1.0802 1.0814 1.0909 1.0971 1.1011 1.1034 1.1038 1.109 1.1127 1.1155 1.1175 1.1227 1.127 1.1304 1.1332 1.135 1.1362 1.1409 1.1438 1.1473 1.1507 1.1559 1.1577 1.1579 1.1604 1.1643 1.1669 1.1673 1.1686 1.1724 1.1744 1.1755 1.1791 1.1803 1.1815 1.1841 1.186 1.1919 1.1954 1.1957 1.2048 1.2092 1.21 1.2113 1.216 1.217 1.2191 1.2302 1.2362 1.2431 1.2439 1.2472 1.2589 1.2624 1.2652 1.2667 1.2682 1.2721 1.2742 1.2776 1.2801 1.2823 1.2841 1.2895 1.2926 1.2974 1.3024 1.304 1.3053 1.3062 1.3078 1.3136 1.3158 1.3188 1.3216 1.3239 1.3277 1.3338 1.336 1.3383 1.3444 1.3454 1.3482 1.3502 1.3542 1.3602 1.3667 1.3685 1.3724 1.3819 1.3859 1.3871 1.3894 1.3958 1.4075 1.4129 1.4156 1.4228 1.4244 1.4298 1.4365 1.4378 1.4428 1.451 1.4592 1.4607 1.4663 1.4743 1.4835 1.4837 1.4886 1.4931 1.4974 1.4994 1.5064 1.5103 1.5161 1.5231 1.5269 1.533 1.5377 1.5455 1.5513 1.5538 1.5572 1.5584 1.5604 1.562 1.5633 1.5672 1.5735 1.5805 1.5827 1.5872 1.5908 1.603 1.6058 1.6164 1.6178 1.6301 1.6318 1.6358 1.6408 1.6427 1.6456 1.6477 1.6556 1.6711 1.6735 1.6827 1.6832 1.6902 1.691 1.6972 1.6993 1.7054 1.7072 1.7125 1.7152 1.7219 1.7248 1.7286 1.7323 1.7376 1.7463 1.7501 1.7545 1.7585 1.7617 1.7666 1.7784 1.7812 1.7847 1.7891 1.7915 1.799 1.8035 1.8103 1.8172 1.8271 1.8304 1.837 1.839 1.8491 1.858 1.8593 1.8763 1.8813 1.8909 1.9004 1.9197 1.923 1.9291 1.935 1.9401 1.9501 1.9684 1.9732 1.9799 1.9853 2.0036 2.0125 2.0208 2.0386 2.0435 2.0488 2.0528 2.0675 2.0831 2.0961 2.1034 2.1334 2.1516 2.1555 2.1726 2.1742 2.1755 2.1837 2.1939 2.2 2.2145 2.2245 2.2322 2.2435 2.262 2.2727 2.2772 2.284 2.2957 2.3037 2.3114 2.3171 2.3205 2.3337 2.3551 2.3585 2.3739 2.3807 2.3892 2.399 2.4057 2.4186 2.4262 2.4377 2.447 2.4565 2.4607 2.475 2.4756 2.4991 2.5061 2.5166 2.5357 2.5426 2.5534 2.5562 2.5665 2.5856 2.5934 2.6078 2.6224 2.6239 2.6352 2.6395 2.6714 2.6851 2.7248 2.7264 2.73 2.7418 2.7551 2.7619 2.7861 2.7898 2.7993 2.8069 2.8161 2.8197 2.8447 2.8538 2.8677 2.8767 2.9087 2.9099 2.9206 2.9406 2.9509 2.9606 2.9808 3.0035 3.019 3.0413 3.0619 3.1042 3.1116 3.1247 3.1413 3.1571 3.1676 3.1868 3.209 3.2198 3.2305 3.2403 3.2654 3.2775 3.2891 3.3261 3.3344 3.3506 3.3592 3.3734 3.3915 3.4065 3.4255 3.4438 3.4632 3.4869 3.4992 3.5061 3.5112 3.5323 3.5838 3.5924 3.6064 3.6291 3.654 3.6781 3.683 3.6953 3.7049 3.7334 3.7497 3.784 3.8146 3.8315 3.8369 3.8553 3.9119 3.9181 3.9353 3.9603 3.9706 3.999 4.0093 4.047 4.0661 4.0743 4.0853 4.1134 4.1333 4.1589 4.1628 4.1878 4.2372 4.2491 4.2661 4.2793 4.297 4.3259 4.3487 4.3556 4.3813 4.4498 4.4743 4.4997 4.5233 4.5558 4.5815 4.5831 4.6187 4.65 4.6964 4.6987 4.713 4.7361 4.7811 4.8121 4.83 4.8575 4.8876 4.9191 4.9313 4.975 4.9889 5.0235 5.0515 5.0559 5.0889 5.1254 5.155 5.1784 5.1942 5.212 5.2464 5.2567 5.3081 5.3509 5.3675 5.3967 5.4044 5.4754 5.4851 5.5402 5.562 5.5928 5.6412 5.6786 5.6899 5.7695 5.779 5.8338 5.8637 5.8759 5.8955 5.9594 6.0177 6.0386 6.0555 6.0819 6.1184 6.135 6.1766 6.195 6.2218 6.2572 6.2823 6.2964 6.3474 6.377 6.4199 6.4809 6.5275 6.553 6.5907 6.6479 6.698 6.7549 6.7658 6.7924 6.8307 6.8652 6.8989 6.917 6.9312 6.9795 7.0151 7.0447 7.0664 7.1261 7.1757 7.2176 7.2878 7.3061 7.3287 7.3591 7.4082 7.4412 7.5325 7.5602 7.6002 7.6298 7.6973 7.7407 7.7479 7.8163 7.8408 7.8804 7.9545 8.001 8.0385 8.0651 8.1508 8.2128 8.2694 8.3615 8.4202 8.4598 8.5003 8.5908 8.617 8.6687 8.6748 8.7588 8.7703 8.8094 8.8985 8.906 8.9814 9.0396 9.0583 9.0981 9.1565 9.1848 9.2845 9.303 9.3532 9.3884 9.4412 9.5173 9.5336 9.5877 9.6912 9.7634 9.8002 9.8344 9.8828 9.9404 10.0273 10.0509 10.1519 10.1601 10.2082 10.2762 10.3822 10.418 10.4298 10.509 10.5709 10.6191 10.6293 10.7114 10.7813 10.8247 10.8801 11.0194 11.0398 11.0691 11.1273 11.2088 11.2778 11.3284 11.3582 11.4184 11.4424 11.4666 11.5435 11.6127 11.6296 11.7472 11.7582 11.8253 11.8938 11.9456 12.0057 12.1019 12.2135 12.2686 12.3899 12.4309 12.4966 12.5401 12.6379 12.6713 12.6863 12.7892 12.8525 12.923 12.9282 12.9956 13.0653 13.1294 13.2415 13.2939 13.3627 13.4938 13.5738 13.5971 13.6645 13.7935 13.8017 13.8836 14.0232 14.1994 14.2714 14.2963 14.3951 14.5043 14.6121 14.7372 14.7841 14.9133 15.0091 15.0707 15.1727 15.2503 15.2887 15.388 15.4764 15.5779 15.7274 15.7707 15.9005 16.1134 16.1248 16.3314 16.4707 16.6752 16.6983 16.7496 16.9165 16.9941 17.1263 17.1369 17.2796 17.3541 17.4709 17.5807 17.643 17.756 17.8697 17.9628 18.0136 18.2107 18.3841 18.4364 18.4733 18.5913 18.7094 18.7711 18.8298 18.9089 19.0122 19.0396 19.2398 19.3532 19.3892 19.5324 19.6756 19.7609 19.831 20.0198 20.0707 20.082 20.2068 20.2567 20.5218 20.7749 20.7812 20.8561 21.1739 21.29 21.4352 21.5896 21.6864 21.7814 22.0579 22.1449 22.4055 22.4369 22.4959 22.6697 22.7602 22.9102 23.013 23.1433 23.3627 23.5401 23.6524 23.8921 24.0412 24.1423 24.4391 24.5964 24.6921 25.0015 25.1464 25.3872 25.4377 25.5492 25.8656 26.0794 26.2759 26.3691 26.5005 26.5539 26.7098 26.9037 27.1258 27.1836 27.4306 27.5008 27.6281 27.9287 28.2626 28.288 28.4225 28.6672 28.828 28.9068 29.0928 29.4129 29.4807 29.6118 30.0491 30.4125 30.4277 30.8844 31.1338 31.2523 31.4631 31.6982 32.1622 32.2153 32.5464 32.5991 32.7076 33.0983 33.2752 33.5176 33.6373 33.8383 33.9205 34.2721 34.6206 34.8076 35.1589 35.2941 35.3411 35.6288 35.8763 36.0446 36.5692 36.7711 36.9765 37.0421 37.5767 37.7738 38.1029 38.4186 38.5227 38.7972 39.3938 39.6475 39.7584 40.0276 40.3079 40.641 40.8705 41.085 41.2347 41.589 41.7 42.0686 42.4093 42.8069 43.0887 43.4593 43.6261 44.4191 44.6237 44.9204 45.3882 45.599 46.2666 46.4464 46.5306 46.932 47.3693 47.6141 48.1744 48.26 48.6981 48.8503 49.0863 49.3614 49.3928 50.0021 50.0247 50.4169 50.6918 50.9638 51.3019 51.729 52.1668 52.674 52.8574 53.1504 53.6468 54.1341 54.2476 54.6669 55.2685 56.1346 56.4487 56.5891 57.1185 57.4994 -57.594 57.6372 57.8774 58.4433 58.7184 59.1802 59.5146 60.0092 60.4925 61.4321 62.0423 62.5857 63.6441 64.4944 64.7669 65.3781 65.742 66.0457 66.6925 66.8775 67.5047 68.5294 69.1076 69.7121 70.1599 70.7283 71.4768 72.1639 73.2711 74.116 74.5308 76.4513 76.7869 77.9696 78.8422 80.2989 81.2629 82.128 82.2037 84.4593 84.8151 85.8047 88.4803 89.2393 89.8421 90.0147 92.4484 93.9889 94.2499 95.6231 97.3649 98.8685 99.3663 100.6316 101.9858 102.4522 102.9506 105.4683 106.8613 108.4912 109.2939 109.3932 110.7897 112.2447 113.4204 113.471 114.7428 118.5111 118.5936 120.4552 121.0682 121.4463 122.3598 124.7231 128.8416 129.5493 132.1591 134.1894 134.9702 139.7642 139.9402 142.0564 145.8809 147.8723 149.5634 154.0716 156.9023 159.293 160.4093 161.5753 165.5547 167.3395 170.6582 175.0518 175.7022 180.6696 182.903 183.6096 186.9688 190.3064 197.5178 200.1066 201.5019 201.8238 205.8865 212.1256 214.0822 216.1375 221.7105 227.147 229.2303 235.8712 238.7106 241.3886 245.9399 249.2385 257.0912 258.5233 262.9415 272.2686 284.8969 288.3546 293.0632 297.6392 301.5776 306.2953 312.9375 320.6446 323.8088 333.3272 345.5112 346.9152 361.7839 368.5115 384.2927 396.6748 403.4591 416.583 424.3601 428.6876 467.3751 470.1456 515.8283 521.2338 533.8553 554.701 557.0593 584.3282 610.6552 705.0361 777.098 876.4702 931.063 995.592 1047.7505 1132.9187 1201.5275 1253.0908 1341.1776 1389.1499 1707.8405 1757.2758 2092.8748 2165.7301 2474.7649 2762.2564 2992.8923 3286.5889 3727.1194 5724.3235 8711.9072 13385.8299 


Tree3 - total stretch = 238713.62476036005, ave stretch = 26.779630329858655
[0,1) - 90
[1,2) - 180
[2,4) - 552
[4,8) - 1579
[8,16) - 2486
[16,32) - 2270
[32,64) - 1052
[64,128) - 456
[128,256) - 185
[256,512) - 51
[512,1024) - 9

Eigenvalues of lap(a) * lap(tree3)^-1
0.945 1.0035 1.0101 1.0117 1.0145 1.0158 1.0175 1.0181 1.0196 1.0207 1.0219 1.0232 1.0241 1.0279 1.0316 1.0324 1.0335 1.0354 1.0368 1.0389 1.0403 1.0415 1.0468 1.0479 1.0512 1.0534 1.0564 1.0582 1.0602 1.0605 1.0651 1.0684 1.0697 1.0711 1.0715 1.0749 1.0756 1.0768 1.0818 1.0877 1.092 1.0932 1.0957 1.0992 1.1013 1.1026 1.1049 1.1056 1.1057 1.1079 1.1122 1.1168 1.1193 1.1216 1.1275 1.1293 1.1301 1.1333 1.1337 1.1368 1.1407 1.143 1.1439 1.1454 1.1457 1.1479 1.1489 1.1534 1.1556 1.1567 1.1576 1.1581 1.1598 1.1614 1.1632 1.1664 1.1688 1.1746 1.1754 1.1775 1.181 1.183 1.1867 1.193 1.199 1.2029 1.2058 1.2115 1.2156 1.2159 1.2187 1.2224 1.223 1.2253 1.2274 1.2295 1.2307 1.232 1.2334 1.2363 1.2376 1.2407 1.243 1.244 1.2479 1.2491 1.2501 1.2536 1.2616 1.2644 1.269 1.273 1.2751 1.2791 1.2802 1.2813 1.2828 1.2867 1.289 1.2916 1.2964 1.297 1.2997 1.3008 1.3052 1.3091 1.3144 1.3167 1.3189 1.3215 1.3248 1.3269 1.3291 1.3315 1.3376 1.3446 1.347 1.3496 1.3505 1.3537 1.3578 1.3632 1.3647 1.3667 1.3673 1.378 1.3796 1.3823 1.3856 1.3876 1.3921 1.3977 1.4007 1.4051 1.4071 1.4188 1.4213 1.4267 1.4285 1.4288 1.43 1.4402 1.4443 1.4454 1.4502 1.4523 1.4561 1.4578 1.4657 1.4705 1.4734 1.4782 1.4818 1.4831 1.4918 1.4943 1.5023 1.506 1.5094 1.5107 1.5143 1.5193 1.5209 1.5259 1.528 1.5292 1.5335 1.541 1.5462 1.5504 1.5513 1.5539 1.5562 1.5617 1.5648 1.5687 1.5717 1.5803 1.5839 1.5902 1.5984 1.602 1.6116 1.6172 1.6247 1.6264 1.6354 1.6468 1.653 1.6549 1.6578 1.6618 1.6636 1.6723 1.6808 1.6833 1.6866 1.69 1.6903 1.7037 1.7086 1.7237 1.7283 1.729 1.7331 1.7346 1.7473 1.7504 1.7562 1.7626 1.7674 1.7727 1.7737 1.7794 1.7879 1.7976 1.802 1.8175 1.8304 1.8338 1.8423 1.8508 1.857 1.858 1.8725 1.879 1.8907 1.8929 1.8944 1.9038 1.9108 1.9187 1.9261 1.9386 1.9445 1.9521 1.9546 1.9598 1.9642 1.9703 1.9774 1.9833 1.9904 1.9941 2.0119 2.0165 2.0198 2.0301 2.0334 2.0415 2.0527 2.0601 2.0661 2.0673 2.0812 2.0905 2.1016 2.1071 2.1084 2.1195 2.1226 2.1348 2.1425 2.1468 2.1606 2.1673 2.1732 2.1789 2.1858 2.2017 2.2095 2.2144 2.2218 2.2314 2.2432 2.249 2.2586 2.269 2.2803 2.2911 2.2936 2.3112 2.3128 2.328 2.3314 2.3414 2.3435 2.3475 2.3696 2.373 2.3746 2.3896 2.3979 2.4 2.405 2.4247 2.4325 2.4375 2.455 2.4696 2.4904 2.4987 2.5145 2.5283 2.5294 2.5357 2.5646 2.5783 2.5854 2.6004 2.6103 2.6302 2.6331 2.6474 2.6559 2.6664 2.6714 2.6922 2.6936 2.7144 2.7218 2.7329 2.7472 2.7503 2.7578 2.7831 2.7885 2.8 2.8049 2.8242 2.8372 2.8444 2.8565 2.8646 2.8966 2.9158 2.9338 2.9412 2.9657 2.9714 2.9823 2.9971 3.0041 3.0191 3.0382 3.0473 3.0512 3.0717 3.0924 3.1372 3.1481 3.1543 3.1752 3.1889 3.2297 3.2552 3.2691 3.2976 3.3185 3.3295 3.3403 3.3791 3.3892 3.4074 3.4212 3.4463 3.4635 3.5005 3.5184 3.5375 3.5519 3.5539 3.5901 3.6039 3.6196 3.6324 3.6624 3.668 3.6785 3.6861 3.7216 3.7325 3.7399 3.7645 3.7753 3.7791 3.8253 3.8434 3.8506 3.8725 3.9036 3.9271 3.9344 3.9473 3.9619 3.9766 4.0111 4.0169 4.0481 4.0778 4.0898 4.0949 4.105 4.153 4.1933 4.1963 4.2209 4.2415 4.2643 4.2825 4.3128 4.3225 4.3415 4.3725 4.3827 4.4063 4.4397 4.4761 4.4989 4.5333 4.5732 4.5986 4.625 4.645 4.7046 4.7111 4.7296 4.7389 4.7755 4.7773 4.8053 4.8182 4.8602 4.9006 4.9049 4.9181 4.9225 4.9436 4.9575 4.9767 5.0016 5.036 5.0482 5.1 5.1209 5.1321 5.1622 5.1915 5.2143 5.2238 5.2373 5.2721 5.2887 5.3197 5.3426 5.3667 5.3812 5.4118 5.4416 5.4902 5.5077 5.5162 5.5616 5.5754 5.6067 5.6304 5.6513 5.6726 5.7173 5.7413 5.752 5.7963 5.8126 5.8412 5.89 5.8955 5.9196 5.9553 5.9872 5.9974 6.043 6.0764 6.1351 6.1442 6.216 6.2258 6.2601 6.2864 6.3229 6.3499 6.3592 6.3993 6.4186 6.4995 6.5226 6.5613 6.6024 6.6157 6.6256 6.6881 6.6936 6.7429 6.7773 6.8179 6.8415 6.8919 6.9293 6.9831 7.0386 7.0787 7.0873 7.1288 7.1627 7.2286 7.2723 7.2859 7.3671 7.4044 7.4849 7.5104 7.5782 7.6402 7.7572 7.804 7.8771 7.9412 7.9835 8.0285 8.0457 8.0822 8.1312 8.2087 8.2274 8.2863 8.3228 8.3595 8.4502 8.4796 8.5277 8.5955 8.6822 8.7206 8.7411 8.8223 8.8813 8.9241 8.9522 9.014 9.0566 9.075 9.1397 9.2279 9.2373 9.3149 9.3237 9.3325 9.4911 9.5181 9.5653 9.6325 9.6737 9.7226 9.7732 9.7855 9.8661 9.9215 9.9663 10.0586 10.0814 10.1306 10.1702 10.2254 10.3073 10.3269 10.3904 10.4499 10.4863 10.5492 10.5635 10.6074 10.6367 10.6969 10.7484 10.7789 10.9202 10.977 11.0318 11.0671 11.0859 11.1448 11.238 11.2796 11.3027 11.4611 11.5556 11.5851 11.5956 11.6341 11.693 11.7779 11.8268 11.874 11.9983 12.0468 12.093 12.1715 12.2606 12.3829 12.4355 12.5406 12.5576 12.6031 12.6474 12.7146 12.8792 12.9081 13.0162 13.1227 13.1729 13.2336 13.3114 13.4476 13.4668 13.5193 13.722 13.7707 13.8454 13.9105 14.0764 14.0819 14.1592 14.31 14.4176 14.4901 14.5391 14.6438 14.8003 14.8357 14.9659 15.0223 15.13 15.275 15.3944 15.4665 15.5811 15.6503 15.776 15.956 15.979 16.09 16.1742 16.2848 16.3545 16.3852 16.456 16.676 16.7292 16.9244 17.0581 17.0934 17.2258 17.2758 17.3473 17.3988 17.6215 17.6701 17.8508 17.9186 17.9608 18.0197 18.1892 18.2084 18.3061 18.4509 18.5336 18.6024 18.6859 18.7166 18.9849 19.169 19.2259 19.335 19.4295 19.5466 19.6211 19.6316 19.7685 20.0137 20.1262 20.2596 20.3259 20.3648 20.4606 20.579 20.8256 21.0473 21.1229 21.1788 21.3737 21.4981 21.8685 21.9366 22.0215 22.2078 22.425 22.4336 22.6264 22.7196 22.7776 22.8743 23.0591 23.1546 23.4438 23.5051 23.6266 23.7187 23.9773 24.0711 24.1914 24.3412 24.555 24.5879 24.8092 25.0372 25.1194 25.1369 25.3992 25.5427 25.5838 25.7431 26.0844 26.5256 26.7443 26.8562 27.0165 27.2138 27.3415 27.5346 27.8577 28.0995 28.301 28.478 28.7006 28.9442 29.213 29.4754 29.9189 30.074 30.2737 30.6683 31.0078 31.017 31.1454 31.3406 31.5139 31.6374 31.9038 31.9898 32.2973 32.3977 32.8226 33.0091 33.1634 33.4296 33.5472 33.836 34.2309 34.417 34.5202 34.6089 34.9716 35.2555 35.2958 35.952 36.0019 36.3627 36.4585 36.9688 37.3661 37.6455 37.8849 38.3426 38.4081 39.1043 39.2671 39.4624 -39.681 40.0171 40.2779 40.4402 40.6936 41.1017 41.3394 41.6132 41.7795 42.0351 42.302 42.4397 42.6651 43.5858 44.0563 44.2609 44.4467 44.8502 45.0934 46.0329 46.2845 47.0077 47.6436 48.4529 49.1149 49.1851 49.7215 50.5001 50.6207 51.3253 52.1837 52.2443 52.4058 52.7572 53.1084 53.8276 54.7764 55.2072 55.4147 55.8303 56.6343 57.1154 57.7004 58.212 58.4544 58.9396 59.8517 60.3707 61.069 61.5006 62.0765 62.8669 63.3376 63.6697 63.8716 64.4805 64.993 65.3263 66.1255 66.7633 67.2609 67.8155 69.7046 71.0762 73.2561 73.8124 74.375 74.9826 75.1456 76.6149 76.7518 77.4464 79.6512 79.7155 81.4089 81.9096 82.0855 83.4022 85.1157 85.5006 86.4886 90.9527 92.3867 92.9312 94.7596 95.6006 96.2171 97.5004 98.2649 99.5599 101.7126 103.0418 103.8768 104.9787 106.2278 109.0052 111.801 112.5865 116.4626 117.9058 118.5234 118.7125 122.0928 122.8376 124.3866 125.6557 129.0167 130.6815 132.8769 134.5039 136.0783 138.0121 141.3215 144.5851 145.3249 151.3544 155.5763 159.2577 159.8982 165.2561 168.4746 174.1526 176.2045 177.3243 179.5765 183.0343 186.2679 187.7775 190.2078 193.6557 200.7104 204.0709 206.9818 209.6786 217.5814 219.5651 222.2433 228.6788 241.8266 251.7709 259.4366 265.3003 273.7579 282.6507 289.919 293.2553 297.2397 306.1491 309.236 311.5238 319.2614 328.5826 334.3861 350.518 370.5416 419.1381 429.5966 466.6841 540.4962 561.7627 570.2248 626.8339 639.2256 673.7985 698.0272 729.7647 774.3938 800.333 828.171 904.3066 938.4076 1023.8938 1083.3933 1144.4274 1211.9318 1268.8588 1357.1563 1476.5455 1479.1136 1548.9857 1645.1274 1669.6908 1998.3136 2083.2272 2485.4341 2582.7536 2949.5985 3263.3886 7711.8398 13439.8245 17374.9248 23960.418 111981.4285 


